
Integration time [ms]: 100.000
Averaging Nr. [scans]: 10
Smoothing Nr. [pixels]: 0
Data measured with spectrometer [name]: 1804345U2
Wave   ;Sample   ;Dark     ;Reference;Scope Corrected for Dark
[nm]   ;[counts] ;[counts] ;[counts] 

 318.09;  -46.800;  -43.200;    0.000;-3.60000
 318.11;   -1.100;   14.500;    0.000;-15.60000
 318.13;    0.100;  -15.700;    0.000;15.80000
 318.15;  -25.700;  -37.700;    0.000;12.00000
 318.16;  -72.700;  -38.600;    0.000;-34.10000
 318.18;   48.700;   36.100;    0.000;12.60000
 318.20;  -11.800;  -15.600;    0.000; 3.80000
 318.22;    9.400;   -7.000;    0.000;16.40000
 318.24;  -27.600;  -26.900;    0.000;-0.70000
 318.26;   55.400;   40.900;    0.000;14.50000
 318.28;   -5.500;   11.900;    0.000;-17.40000
 318.30;   17.500;   47.000;    0.000;-29.50000
 318.32;  -12.600;   -5.200;    0.000;-7.40000
 318.34;   26.300;   51.200;    0.000;-24.90000
 318.36;  -27.500;   -5.300;    0.000;-22.20000
 318.38;   46.400;   37.600;    0.000; 8.80000
 318.40;    5.600;   24.600;    0.000;-19.00000
 318.42;  -44.900;  -57.800;    0.000;12.90000
 318.43;  -23.200;  -19.300;    0.000;-3.90000
 318.45;   15.600;   -3.500;    0.000;19.10000
 318.47;  -34.500;  -43.500;    0.000; 9.00000
 318.49;    1.900;   20.700;    0.000;-18.80000
 318.51;    4.100;   34.700;    0.000;-30.60000
 318.53;   92.400;   74.700;    0.000;17.70000
 318.55;  -38.500;  -30.600;    0.000;-7.90000
 318.57;   65.100;   74.200;    0.000;-9.10000
 318.59;  -33.700;   -3.300;    0.000;-30.40000
 318.61;   -9.600;   -7.300;    0.000;-2.30000
 318.63;  -29.600;  -56.500;    0.000;26.90000
 318.65;  -33.500;  -13.100;    0.000;-20.40000
 318.67;  -37.800;  -33.400;    0.000;-4.40000
 318.68;   29.400;   49.400;    0.000;-20.00000
 318.70;  -93.000;  -71.700;    0.000;-21.30000
 318.72;   60.900;   61.000;    0.000;-0.10000
 318.74;  -66.700;  -73.500;    0.000; 6.80000
 318.76;   98.600;   85.400;    0.000;13.20000
 318.78;   45.500;   16.300;    0.000;29.20000
 318.80;   21.200;   26.700;    0.000;-5.50000
 318.82;  -26.400;  -57.600;    0.000;31.20000
 318.84;   34.200;   20.000;    0.000;14.20000
 318.86;  -41.900;  -50.300;    0.000; 8.40000
 318.88;   20.200;   19.000;    0.000; 1.20000
 318.90;    2.100;  -25.700;    0.000;27.80000
 318.92;   50.300;   26.100;    0.000;24.20000
 318.93;   36.000;   19.600;    0.000;16.40000
 318.95;   53.300;   81.500;    0.000;-28.20000
 318.97;   33.700;   18.900;    0.000;14.80000
 318.99;   15.400;   13.600;    0.000; 1.80000
 319.01;    5.400;    1.600;    0.000; 3.80000
 319.03;  -14.100;  -13.200;    0.000;-0.90000
 319.05;   59.600;   21.100;    0.000;38.50000
 319.07;  -59.600;  -68.900;    0.000; 9.30000
 319.09;   10.500;    9.500;    0.000; 1.00000
 319.11;    0.800;   -8.000;    0.000; 8.80000
 319.13;   80.000;   82.800;    0.000;-2.80000
 319.15;   42.700;   16.700;    0.000;26.00000
 319.17;   -0.400;  -13.500;    0.000;13.10000
 319.18;   13.200;   -3.400;    0.000;16.60000
 319.20;  -26.700;   -4.900;    0.000;-21.80000
 319.22;   57.500;   22.300;    0.000;35.20000
 319.24;  -39.500;  -39.600;    0.000; 0.10000
 319.26;   44.700;   22.600;    0.000;22.10000
 319.28;   28.200;   22.000;    0.000; 6.20000
 319.30;   73.200;   53.500;    0.000;19.70000
 319.32;  -25.200;  -27.300;    0.000; 2.10000
 319.34;   48.000;   50.500;    0.000;-2.50000
 319.36;  -24.700;  -71.200;    0.000;46.50000
 319.38;   13.400;    9.500;    0.000; 3.90000
 319.40;  -43.100;  -83.800;    0.000;40.70000
 319.41;   65.800;   55.100;    0.000;10.70000
 319.43;   23.200;   17.100;    0.000; 6.10000
 319.45;   68.200;   63.200;    0.000; 5.00000
 319.47;   -9.500;  -41.100;    0.000;31.60000
 319.49;  -25.600;  -26.800;    0.000; 1.20000
 319.51;   -4.100;  -25.100;    0.000;21.00000
 319.53;    8.800;   18.400;    0.000;-9.60000
 319.55;   31.700;   15.300;    0.000;16.40000
 319.57;  -18.600;  -26.500;    0.000; 7.90000
 319.59;  -27.900;   21.500;    0.000;-49.40000
 319.61;  -14.200;  -25.100;    0.000;10.90000
 319.62;   20.100;   25.600;    0.000;-5.50000
 319.64;   49.700;   41.700;    0.000; 8.00000
 319.66;    2.800;  -28.600;    0.000;31.40000
 319.68;   23.400;   29.800;    0.000;-6.40000
 319.70;  -54.600;  -85.700;    0.000;31.10000
 319.72;   49.700;   31.800;    0.000;17.90000
 319.74;   19.400;    9.900;    0.000; 9.50000
 319.76;   -5.000;    2.400;    0.000;-7.40000
 319.78;  -16.800;  -12.100;    0.000;-4.70000
 319.80;   46.000;   18.300;    0.000;27.70000
 319.82;   34.600;   -2.700;    0.000;37.30000
 319.83;   18.500;   11.400;    0.000; 7.10000
 319.85;  -17.700;  -38.000;    0.000;20.30000
 319.87;   13.500;   -6.100;    0.000;19.60000
 319.89;  -52.200;  -69.000;    0.000;16.80000
 319.91;   42.200;  -19.400;    0.000;61.60000
 319.93;    8.000;   38.300;    0.000;-30.30000
 319.95;  -29.500;  -24.800;    0.000;-4.70000
 319.97;  -40.000;  -48.500;    0.000; 8.50000
 319.99;    9.900;  -20.900;    0.000;30.80000
 320.01;   -9.200;   -6.100;    0.000;-3.10000
 320.03;  -55.100;  -81.300;    0.000;26.20000
 320.04;    7.200;    0.900;    0.000; 6.30000
 320.06;   75.800;   47.300;    0.000;28.50000
 320.08;  -34.900;  -51.100;    0.000;16.20000
 320.10;  111.700;  122.900;    0.000;-11.20000
 320.12;  -16.400;  -17.600;    0.000; 1.20000
 320.14;   -0.900;    3.100;    0.000;-4.00000
 320.16;   -6.100;  -16.900;    0.000;10.80000
 320.18;   25.800;   28.400;    0.000;-2.60000
 320.20;  -18.800;  -44.300;    0.000;25.50000
 320.22;   16.200;   19.100;    0.000;-2.90000
 320.24;  -37.300;  -20.500;    0.000;-16.80000
 320.25;   61.500;   62.800;    0.000;-1.30000
 320.27;   12.000;   12.500;    0.000;-0.50000
 320.29;    5.300;   17.500;    0.000;-12.20000
 320.31;  -10.800;    4.800;    0.000;-15.60000
 320.33;   58.700;   56.500;    0.000; 2.20000
 320.35;  -23.400;  -18.800;    0.000;-4.60000
 320.37;  -14.900;  -44.300;    0.000;29.40000
 320.39;  -62.100;  -50.700;    0.000;-11.40000
 320.41;    0.900;   16.300;    0.000;-15.40000
 320.43;  -14.600;   20.500;    0.000;-35.10000
 320.44;   15.500;  -35.900;    0.000;51.40000
 320.46;   17.800;   25.400;    0.000;-7.60000
 320.48;   37.600;   37.500;    0.000; 0.10000
 320.50;   44.900;   26.000;    0.000;18.90000
 320.52;  -11.100;  -21.300;    0.000;10.20000
 320.54;   40.500;   22.500;    0.000;18.00000
 320.56;   50.000;   39.500;    0.000;10.50000
 320.58;   84.500;   92.600;    0.000;-8.10000
 320.60;   -7.200;   -4.900;    0.000;-2.30000
 320.62;  -79.000; -117.800;    0.000;38.80000
 320.64;   -7.300;   -1.300;    0.000;-6.00000
 320.65;  -59.000;  -49.300;    0.000;-9.70000
 320.67;   70.500;   14.200;    0.000;56.30000
 320.69;  163.900;   48.000;    0.000;115.90000
 320.71;  194.000;   90.900;    0.000;103.10000
 320.73;  157.800;   54.200;    0.000;103.60000
 320.75;   64.700;    3.900;    0.000;60.80000
 320.77;   13.000;  -13.900;    0.000;26.90000
 320.79;    7.300;  -15.600;    0.000;22.90000
 320.81;  -58.900;  -49.200;    0.000;-9.70000
 320.83;   43.300;    6.600;    0.000;36.70000
 320.84;   85.800;  100.400;    0.000;-14.60000
 320.86;   22.200;  -15.100;    0.000;37.30000
 320.88;  -70.800;  -65.100;    0.000;-5.70000
 320.90;  -20.200;  -24.700;    0.000; 4.50000
 320.92;   -3.900;  -20.700;    0.000;16.80000
 320.94;   54.900;   38.800;    0.000;16.10000
 320.96;  -50.600;  -61.200;    0.000;10.60000
 320.98;   39.100;    4.000;    0.000;35.10000
 321.00;  -27.300;  -61.300;    0.000;34.00000
 321.01;   40.300;   22.900;    0.000;17.40000
 321.03;   17.300;    7.300;    0.000;10.00000
 321.05;   83.600;   59.000;    0.000;24.60000
 321.07;  -20.900;  -24.800;    0.000; 3.90000
 321.09;   28.700;   13.500;    0.000;15.20000
 321.11;  -10.700;  -43.100;    0.000;32.40000
 321.13;    1.000;  -45.100;    0.000;46.10000
 321.15;  -44.000;  -34.000;    0.000;-10.00000
 321.17;  115.200;  111.000;    0.000; 4.20000
 321.19;   -1.900;    6.400;    0.000;-8.30000
 321.20;   -6.300;  -12.900;    0.000; 6.60000
 321.22;   41.900;   16.500;    0.000;25.40000
 321.24;  -11.500;   -5.200;    0.000;-6.30000
 321.26;  -46.800;  -54.000;    0.000; 7.20000
 321.28;    4.100;  -34.400;    0.000;38.50000
 321.30;   58.400;   27.500;    0.000;30.90000
 321.32;   23.800;   37.000;    0.000;-13.20000
 321.34;  -59.600;  -64.800;    0.000; 5.20000
 321.36;   41.500;    0.000;    0.000;41.50000
 321.37;   70.900;   44.900;    0.000;26.00000
 321.39;    5.600;   -1.400;    0.000; 7.00000
 321.41;   28.700;   13.500;    0.000;15.20000
 321.43;   18.300;   16.200;    0.000; 2.10000
 321.45;   45.100;   38.700;    0.000; 6.40000
 321.47;   61.900;   45.200;    0.000;16.70000
 321.49;   24.300;   10.900;    0.000;13.40000
 321.51;   -2.400;  -13.900;    0.000;11.50000
 321.53;    5.000;  -32.700;    0.000;37.70000
 321.54;   14.900;   -0.400;    0.000;15.30000
 321.56;   -8.200;   -5.100;    0.000;-3.10000
 321.58;   10.500;    7.800;    0.000; 2.70000
 321.60;   47.800;   47.300;    0.000; 0.50000
 321.62;   75.100;   62.800;    0.000;12.30000
 321.64;   30.400;   32.300;    0.000;-1.90000
 321.66;   57.600;   15.900;    0.000;41.70000
 321.68;   -0.400;   34.500;    0.000;-34.90000
 321.70;   74.800;   31.200;    0.000;43.60000
 321.71;  -40.800;  -53.900;    0.000;13.10000
 321.73;   14.200;    9.100;    0.000; 5.10000
 321.75;   -7.600;  -37.000;    0.000;29.40000
 321.77;   -1.700;  -35.600;    0.000;33.90000
 321.79;   -2.000;  -14.900;    0.000;12.90000
 321.81;    9.600;   -1.700;    0.000;11.30000
 321.83;   59.300;   10.900;    0.000;48.40000
 321.85;   58.800;   58.400;    0.000; 0.40000
 321.87;  -12.000;  -12.700;    0.000; 0.70000
 321.88;   45.600;   10.000;    0.000;35.60000
 321.90;   56.300;   33.700;    0.000;22.60000
 321.92;   24.100;   35.700;    0.000;-11.60000
 321.94;   31.600;    2.700;    0.000;28.90000
 321.96;   20.800;  -13.800;    0.000;34.60000
 321.98;   72.500;   44.200;    0.000;28.30000
 322.00;   50.700;   59.400;    0.000;-8.70000
 322.02;  -30.400;   16.900;    0.000;-47.30000
 322.04;  -41.900;  -66.400;    0.000;24.50000
 322.05;  -10.400;  -24.300;    0.000;13.90000
 322.07;    3.000;  -19.500;    0.000;22.50000
 322.09;  -39.600;  -66.500;    0.000;26.90000
 322.11;   -0.600;    9.800;    0.000;-10.40000
 322.13;   16.900;   -7.000;    0.000;23.90000
 322.15;  113.800;   97.100;    0.000;16.70000
 322.17;  -12.100;  -24.200;    0.000;12.10000
 322.19;  -48.100;  -28.600;    0.000;-19.50000
 322.20;   -7.500;  -30.400;    0.000;22.90000
 322.22;   92.200;   56.400;    0.000;35.80000
 322.24;  -18.900;  -40.500;    0.000;21.60000
 322.26;  -40.600;  -56.600;    0.000;16.00000
 322.28;   -4.500;   -2.400;    0.000;-2.10000
 322.30;   50.500;    3.800;    0.000;46.70000
 322.32;  -50.800;  -61.500;    0.000;10.70000
 322.34;   -3.300;  -38.900;    0.000;35.60000
 322.36;  -11.700;  -37.100;    0.000;25.40000
 322.37;   25.300;  -16.800;    0.000;42.10000
 322.39;  -10.500;  -37.900;    0.000;27.40000
 322.41;   63.300;    5.800;    0.000;57.50000
 322.43;   61.100;   50.100;    0.000;11.00000
 322.45;   63.200;   52.900;    0.000;10.30000
 322.47;   43.000;   12.100;    0.000;30.90000
 322.49;  -19.600;  -38.700;    0.000;19.10000
 322.51;  -24.000;  -49.100;    0.000;25.10000
 322.52;    8.600;  -14.200;    0.000;22.80000
 322.54;  -12.800;  -29.900;    0.000;17.10000
 322.56;  -69.600;  -66.700;    0.000;-2.90000
 322.58;   10.000;    2.000;    0.000; 8.00000
 322.60;    9.800;  -30.100;    0.000;39.90000
 322.62;   38.200;   -1.900;    0.000;40.10000
 322.64;   75.300;   35.500;    0.000;39.80000
 322.66;   25.900;   12.300;    0.000;13.60000
 322.67;  150.300;  136.300;    0.000;14.00000
 322.69;   43.400;   20.000;    0.000;23.40000
 322.71;  -15.600;  -40.600;    0.000;25.00000
 322.73;   89.100;   63.100;    0.000;26.00000
 322.75;   84.200;   55.600;    0.000;28.60000
 322.77;   45.900;   11.100;    0.000;34.80000
 322.79;   74.900;   41.200;    0.000;33.70000
 322.81;  101.100;   61.800;    0.000;39.30000
 322.82;  -34.000;  -48.800;    0.000;14.80000
 322.84;   59.300;   13.900;    0.000;45.40000
 322.86;   11.100;   -6.900;    0.000;18.00000
 322.88;  -16.800;  -16.500;    0.000;-0.30000
 322.90;   90.900;   68.500;    0.000;22.40000
 322.92;   33.700;   -8.000;    0.000;41.70000
 322.94;  -23.800;  -36.200;    0.000;12.40000
 322.96;   35.700;  -31.400;    0.000;67.10000
 322.97;   39.800;   20.100;    0.000;19.70000
 322.99;   38.500;    8.600;    0.000;29.90000
 323.01;   67.400;   -9.700;    0.000;77.10000
 323.03;   60.500;   31.000;    0.000;29.50000
 323.05;   95.100;   53.600;    0.000;41.50000
 323.07;    3.200;  -23.800;    0.000;27.00000
 323.09;   53.300;    4.100;    0.000;49.20000
 323.11;   57.800;   24.300;    0.000;33.50000
 323.12;   48.300;    3.400;    0.000;44.90000
 323.14;  -13.300;  -68.200;    0.000;54.90000
 323.16;   65.200;  -14.900;    0.000;80.10000
 323.18;   69.800;  -10.500;    0.000;80.30000
 323.20;  118.600;   30.800;    0.000;87.80000
 323.22;  112.000;   34.000;    0.000;78.00000
 323.24;   23.500;  -19.200;    0.000;42.70000
 323.25;   65.300;   15.100;    0.000;50.20000
 323.27;   38.200;  -57.600;    0.000;95.80000
 323.29;  103.700;   25.300;    0.000;78.40000
 323.31;   38.800;  -60.500;    0.000;99.30000
 323.33;   54.900;  -46.300;    0.000;101.20000
 323.35;   79.600;   15.000;    0.000;64.60000
 323.37;   61.900;  -32.700;    0.000;94.60000
 323.39;  151.900;   77.000;    0.000;74.90000
 323.40;   25.600;  -20.800;    0.000;46.40000
 323.42;   91.100;   12.800;    0.000;78.30000
 323.44;  125.200;   57.500;    0.000;67.70000
 323.46;   99.200;  -27.300;    0.000;126.50000
 323.48;  122.100;   -3.500;    0.000;125.60000
 323.50;   96.200;   16.400;    0.000;79.80000
 323.52;   61.200;  -29.900;    0.000;91.10000
 323.53;   49.500;  -49.100;    0.000;98.60000
 323.55;   78.700;  -41.300;    0.000;120.00000
 323.57;  198.800;   54.500;    0.000;144.30000
 323.59;   47.600;  -50.500;    0.000;98.10000
 323.61;  108.500;    7.500;    0.000;101.00000
 323.63;  122.100;   46.100;    0.000;76.00000
 323.65;  100.500;  -32.000;    0.000;132.50000
 323.67;  110.800;   -9.700;    0.000;120.50000
 323.68;  134.800;    7.300;    0.000;127.50000
 323.70;   98.100;   -8.500;    0.000;106.60000
 323.72;  112.300;    3.900;    0.000;108.40000
 323.74;   93.000;  -30.900;    0.000;123.90000
 323.76;  104.500;    3.600;    0.000;100.90000
 323.78;  147.800;   30.400;    0.000;117.40000
 323.80;  114.000;   -2.000;    0.000;116.00000
 323.81;   94.900;  -31.000;    0.000;125.90000
 323.83;  182.200;   40.600;    0.000;141.60000
 323.85;  119.200;   10.700;    0.000;108.50000
 323.87;  126.400;  -28.000;    0.000;154.40000
 323.89;   99.300;  -61.300;    0.000;160.60000
 323.91;  118.400;  -57.000;    0.000;175.40000
 323.93;  164.900;  -28.800;    0.000;193.70000
 323.94;  131.600;  -57.100;    0.000;188.70000
 323.96;  178.600;    3.100;    0.000;175.50000
 323.98;  135.600;  -49.300;    0.000;184.90000
 324.00;  145.200;   -1.400;    0.000;146.60000
 324.02;  180.200;    5.100;    0.000;175.10000
 324.04;  180.400;    0.600;    0.000;179.80000
 324.06;   56.100; -104.800;    0.000;160.90000
 324.07;  169.200;  -12.600;    0.000;181.80000
 324.09;  182.500;    1.300;    0.000;181.20000
 324.11;  196.300;  -48.300;    0.000;244.60000
 324.13;  319.100;  -35.300;    0.000;354.40000
 324.15;  438.500;    6.200;    0.000;432.30000
 324.17;  444.000;   15.200;    0.000;428.80000
 324.19;  299.600;  -14.900;    0.000;314.50000
 324.20;  354.400;  -16.200;    0.000;370.60000
 324.22;  270.900;   -6.600;    0.000;277.50000
 324.24;  265.800;   25.300;    0.000;240.50000
 324.26;  271.500;   -4.900;    0.000;276.40000
 324.28;  265.300;  -40.100;    0.000;305.40000
 324.30;  344.000;  -10.300;    0.000;354.30000
 324.32;  301.800;    3.000;    0.000;298.80000
 324.33;  299.200;  -54.800;    0.000;354.00000
 324.35;  466.500;   28.900;    0.000;437.60000
 324.37;  377.100;  -21.700;    0.000;398.80000
 324.39;  420.300;  -28.400;    0.000;448.70000
 324.41;  447.500;  -48.500;    0.000;496.00000
 324.43;  528.400;  -23.900;    0.000;552.30000
 324.45;  616.100;   19.500;    0.000;596.60000
 324.46;  498.900;  -21.100;    0.000;520.00000
 324.48;  375.700;  -60.500;    0.000;436.20000
 324.50;  488.900;  -42.800;    0.000;531.70000
 324.52;  603.700;   39.700;    0.000;564.00000
 324.54;  645.700;   36.400;    0.000;609.30000
 324.56;  835.700;   68.700;    0.000;767.00000
 324.58;  765.100;   24.200;    0.000;740.90000
 324.59;  768.200;   23.000;    0.000;745.20000
 324.61;  793.500;  -41.900;    0.000;835.40000
 324.63;  784.600;  -12.000;    0.000;796.60000
 324.65;  674.000;  -36.100;    0.000;710.10000
 324.67;  661.400;   14.900;    0.000;646.50000
 324.69;  753.600;  -14.200;    0.000;767.80000
 324.71;  918.500;    4.000;    0.000;914.50000
 324.72;  944.300;  -64.000;    0.000;1008.30000
 324.74;  989.800;   19.100;    0.000;970.70000
 324.76; 1023.100;    6.500;    0.000;1016.60000
 324.78; 1183.800;  -45.100;    0.000;1228.90000
 324.80; 1630.100;   22.700;    0.000;1607.40000
 324.82; 1987.300;  -55.200;    0.000;2042.50000
 324.83; 1831.500;   18.700;    0.000;1812.80000
 324.85; 1540.300;  -24.300;    0.000;1564.60000
 324.87; 1508.400;  -37.900;    0.000;1546.30000
 324.89; 1324.800;   -3.400;    0.000;1328.20000
 324.91; 1369.600;   69.000;    0.000;1300.60000
 324.93; 1256.900;  -39.600;    0.000;1296.50000
 324.95; 1094.000;   42.000;    0.000;1052.00000
 324.96; 1070.100;   19.900;    0.000;1050.20000
 324.98; 1235.800;   21.000;    0.000;1214.80000
 325.00; 1106.400;  -42.800;    0.000;1149.20000
 325.02;  978.600;  -41.900;    0.000;1020.50000
 325.04;  904.800;  -56.400;    0.000;961.20000
 325.06; 1021.000;  -33.600;    0.000;1054.60000
 325.07; 1214.400;   -6.600;    0.000;1221.00000
 325.09; 1398.200;   -6.500;    0.000;1404.70000
 325.11; 1668.000;  -27.300;    0.000;1695.30000
 325.13; 1697.300; -102.200;    0.000;1799.50000
 325.15; 1894.900;   24.500;    0.000;1870.40000
 325.17; 2332.800;   68.600;    0.000;2264.20000
 325.19; 3083.000;  -20.500;    0.000;3103.50000
 325.20; 4164.700;  -23.700;    0.000;4188.40000
 325.22; 4870.900;    6.500;    0.000;4864.40000
 325.24; 6283.100;   28.300;    0.000;6254.80000
 325.26;11441.700;  -12.800;    0.000;11454.50000
 325.28;13815.500;   62.000;    0.000;13753.50000
 325.30; 7336.200;   65.700;    0.000;7270.50000
 325.31; 2316.300;  -12.000;    0.000;2328.30000
 325.33; 1245.800;    7.300;    0.000;1238.50000
 325.35; 1017.600;   48.900;    0.000;968.70000
 325.37;  764.600;  -33.300;    0.000;797.90000
 325.39;  813.500;    1.700;    0.000;811.80000
 325.41;  710.300;  -23.200;    0.000;733.50000
 325.42;  659.500;  -31.700;    0.000;691.20000
 325.44;  539.300;  -65.600;    0.000;604.90000
 325.46;  592.000;  -38.100;    0.000;630.10000
 325.48;  616.700;    0.900;    0.000;615.80000
 325.50;  623.200;  -13.600;    0.000;636.80000
 325.52;  552.900;  -38.100;    0.000;591.00000
 325.54;  602.100;    5.700;    0.000;596.40000
 325.55;  624.600;  -43.800;    0.000;668.40000
 325.57;  766.000;   29.000;    0.000;737.00000
 325.59;  758.200;   30.500;    0.000;727.70000
 325.61;  714.400;  -11.500;    0.000;725.90000
 325.63;  830.200;   32.700;    0.000;797.50000
 325.65;  844.900;  -23.900;    0.000;868.80000
 325.66;  765.700;  -88.900;    0.000;854.60000
 325.68;  955.400;  -45.400;    0.000;1000.80000
 325.70;  991.000;   -8.800;    0.000;999.80000
 325.72; 1043.600;    1.100;    0.000;1042.50000
 325.74; 1042.800;  -31.300;    0.000;1074.10000
