
Integration time [ms]:   1.500
Averaging Nr. [scans]: 100
Smoothing Nr. [pixels]: 0
Data measured with spectrometer [name]: 1804346U2
Wave   ;Sample   ;Dark     ;Reference;Scope
[nm]   ;[counts] ;[counts] ;[counts] 

 294.30;    2.196;    3.667;    0.000
 294.47;    1.053;    1.267;    0.000
 294.63;   -6.302;   30.333;    0.000
 294.80;    3.735;    0.400;    0.000
 294.97;   -1.401;    4.067;    0.000
 295.14;   -4.218;    3.467;    0.000
 295.31;    5.194;    9.200;    0.000
 295.48;    3.733;    9.800;    0.000
 295.64;   -2.158;  -12.800;    0.000
 295.81;   -2.635;    0.400;    0.000
 295.98;   -5.681;   -2.400;    0.000
 296.15;    1.234;   -5.800;    0.000
 296.32;   -0.572;   -4.000;    0.000
 296.48;    3.136;   -8.800;    0.000
 296.65;    7.814;   -4.800;    0.000
 296.82;   11.254;    5.867;    0.000
 296.99;   18.110;   -3.600;    0.000
 297.16;    7.090;   24.600;    0.000
 297.33;   -1.969;   16.467;    0.000
 297.49;    8.093;    2.133;    0.000
 297.66;   -3.059;    9.000;    0.000
 297.83;    3.761;   -0.800;    0.000
 298.00;   -4.360;    5.000;    0.000
 298.17;    4.983;   -0.200;    0.000
 298.33;   -7.039;   13.133;    0.000
 298.50;    2.791;    9.933;    0.000
 298.67;    0.659;   -1.067;    0.000
 298.84;    1.246;   -1.267;    0.000
 299.01;   -0.781;   16.667;    0.000
 299.17;    0.439;   16.533;    0.000
 299.34;   -9.104;    6.000;    0.000
 299.51;    1.246;   11.067;    0.000
 299.68;   -3.667;   -2.733;    0.000
 299.85;   -0.630;  -17.933;    0.000
 300.01;    1.524;   13.067;    0.000
 300.18;   -1.541;   11.200;    0.000
 300.35;   -4.150;    2.467;    0.000
 300.52;    9.143;   -2.000;    0.000
 300.69;    2.040;   10.000;    0.000
 300.86;    2.586;   -0.333;    0.000
 301.02;    2.214;   -2.867;    0.000
 301.19;    4.058;    6.000;    0.000
 301.36;    2.849;   -0.933;    0.000
 301.53;   -0.850;   20.733;    0.000
 301.70;    8.521;    2.867;    0.000
 301.86;    7.235;   21.467;    0.000
 302.03;    8.078;    1.800;    0.000
 302.20;   10.978;    4.000;    0.000
 302.37;   17.666;   -6.733;    0.000
 302.54;    8.296;    0.133;    0.000
 302.70;    1.598;   -4.600;    0.000
 302.87;    3.101;   46.133;    0.000
 303.04;    2.880;  -23.800;    0.000
 303.21;    9.094;    4.533;    0.000
 303.37;   -2.732;    5.267;    0.000
 303.54;    1.403;    1.933;    0.000
 303.71;    7.687;   12.133;    0.000
 303.88;    6.839;   12.200;    0.000
 304.05;   -1.728;   26.133;    0.000
 304.21;   -2.040;   -3.200;    0.000
 304.38;   -3.521;   20.800;    0.000
 304.55;    3.322;    9.333;    0.000
 304.72;    2.175;    0.733;    0.000
 304.89;    4.437;   18.667;    0.000
 305.05;    2.395;    3.933;    0.000
 305.22;   -1.175;   -7.067;    0.000
 305.39;   -2.021;   12.733;    0.000
 305.56;    4.671;  -12.267;    0.000
 305.73;   -0.975;   12.133;    0.000
 305.89;   -2.709;    3.800;    0.000
 306.06;   -2.572;   19.400;    0.000
 306.23;   -0.880;   13.267;    0.000
 306.40;   -4.217;    7.933;    0.000
 306.56;   -2.365;    4.467;    0.000
 306.73;   -1.323;   17.267;    0.000
 306.90;    2.510;    0.067;    0.000
 307.07;    3.795;   -3.533;    0.000
 307.24;    3.445;   18.667;    0.000
 307.40;   -6.779;    5.600;    0.000
 307.57;    7.697;   15.067;    0.000
 307.74;   -4.367;    4.600;    0.000
 307.91;    0.075;    7.733;    0.000
 308.08;    2.673;   -3.933;    0.000
 308.24;    0.872;   -9.467;    0.000
 308.41;    3.510;   11.533;    0.000
 308.58;    4.263;    3.067;    0.000
 308.75;   -3.675;    0.600;    0.000
 308.91;    0.999;   10.333;    0.000
 309.08;   -0.921;  -12.867;    0.000
 309.25;   -3.725;    5.000;    0.000
 309.42;   -3.323;    6.667;    0.000
 309.58;    2.083;    9.733;    0.000
 309.75;   -0.049;   17.267;    0.000
 309.92;    3.351;    5.933;    0.000
 310.09;   -0.821;   12.533;    0.000
 310.26;    0.083;    2.267;    0.000
 310.42;    4.606;   15.733;    0.000
 310.59;    2.474;   21.467;    0.000
 310.76;    1.200;   19.600;    0.000
 310.93;    2.218;   13.667;    0.000
 311.09;   11.419;   -4.867;    0.000
 311.26;    3.147;    5.533;    0.000
 311.43;   -2.448;   -3.533;    0.000
 311.60;    7.939;   -4.133;    0.000
 311.76;    6.631;    6.733;    0.000
 311.93;   14.212;   -1.533;    0.000
 312.10;   18.603;    9.133;    0.000
 312.27;   37.973;   31.533;    0.000
 312.44;  102.727;    5.933;    0.000
 312.60;  255.280;   12.133;    0.000
 312.77;  262.218;   -9.667;    0.000
 312.94;  123.753;   -2.533;    0.000
 313.11;  233.777;   13.533;    0.000
 313.27;  443.674;   15.933;    0.000
 313.44;  230.992;    2.400;    0.000
 313.61;   37.899;   -8.333;    0.000
 313.78;    9.489;   16.933;    0.000
 313.94;    7.448;   12.867;    0.000
 314.11;    2.287;   -8.600;    0.000
 314.28;   -3.701;   12.400;    0.000
 314.45;   -6.000;    5.867;    0.000
 314.61;    0.120;   18.333;    0.000
 314.78;   -6.705;   10.067;    0.000
 314.95;    5.297;   -5.533;    0.000
 315.12;    4.091;    7.733;    0.000
 315.28;    0.666;    0.600;    0.000
 315.45;   -2.903;    4.267;    0.000
 315.62;    9.383;   -9.333;    0.000
 315.79;   -1.736;    3.000;    0.000
 315.95;    4.791;    1.067;    0.000
 316.12;    4.639;   -7.867;    0.000
 316.29;    0.671;    7.400;    0.000
 316.46;    5.377;    5.467;    0.000
 316.62;    5.156;   -3.133;    0.000
 316.79;    2.178;    1.533;    0.000
 316.96;    3.754;   12.800;    0.000
 317.13;   -5.301;   -1.067;    0.000
 317.29;    5.145;   13.467;    0.000
 317.46;    3.166;    4.067;    0.000
 317.63;   -1.500;   12.867;    0.000
 317.80;    4.612;   -6.267;    0.000
 317.96;    7.353;    8.533;    0.000
 318.13;   -0.289;   -4.867;    0.000
 318.30;    3.585;    7.333;    0.000
 318.47;    1.350;   13.400;    0.000
 318.63;    3.592;    1.000;    0.000
 318.80;   -1.102;   -7.267;    0.000
 318.97;   -2.374;    0.400;    0.000
 319.14;    2.172;   11.667;    0.000
 319.30;    4.365;   -6.000;    0.000
 319.47;    3.050;   -1.867;    0.000
 319.64;   -6.573;   -5.333;    0.000
 319.81;    0.987;   12.133;    0.000
 319.97;    5.072;   22.533;    0.000
 320.14;    4.712;    3.467;    0.000
 320.31;    3.784;   -3.133;    0.000
 320.48;    1.101;   -2.133;    0.000
 320.64;   -3.980;    6.000;    0.000
 320.81;   -0.327;   16.333;    0.000
 320.98;    2.982;   29.000;    0.000
 321.14;   -4.499;  -12.733;    0.000
 321.31;    1.787;  -18.067;    0.000
 321.48;    2.042;   18.667;    0.000
 321.65;   -0.149;    2.733;    0.000
 321.81;   -0.600;    1.733;    0.000
 321.98;   -1.292;   16.267;    0.000
 322.15;   -4.310;   15.133;    0.000
 322.32;    9.636;   10.133;    0.000
 322.48;   -0.098;   -9.133;    0.000
 322.65;    6.475;   15.800;    0.000
 322.82;    6.346;   14.133;    0.000
 322.99;    1.975;    6.600;    0.000
 323.15;    5.125;   11.600;    0.000
 323.32;    0.744;   -3.667;    0.000
 323.49;    2.462;  -11.867;    0.000
 323.65;    1.102;    5.733;    0.000
 323.82;   -1.876;    6.267;    0.000
 323.99;   -3.705;   21.000;    0.000
 324.16;   -0.418;    0.933;    0.000
 324.32;    0.327;   -6.000;    0.000
 324.49;   -1.655;   15.200;    0.000
 324.66;    3.022;    1.667;    0.000
 324.82;    5.994;  -23.000;    0.000
 324.99;   -4.853;   16.267;    0.000
 325.16;   -1.042;   -0.200;    0.000
 325.33;    3.017;    1.333;    0.000
 325.49;   -0.806;   -4.600;    0.000
 325.66;    2.450;   -2.133;    0.000
 325.83;   -1.485;    1.733;    0.000
 325.99;    8.636;   -1.600;    0.000
 326.16;   -1.691;   -4.600;    0.000
 326.33;    2.926;   -9.467;    0.000
 326.50;   -0.583;    3.333;    0.000
 326.66;    4.804;   -0.667;    0.000
 326.83;    0.993;   31.667;    0.000
 327.00;   -1.105;   11.400;    0.000
 327.16;    3.539;  -12.333;    0.000
 327.33;   -6.473;   13.333;    0.000
 327.50;   -4.950;   -5.933;    0.000
 327.67;    4.150;   13.267;    0.000
 327.83;   -1.595;    8.400;    0.000
 328.00;    6.866;   -5.333;    0.000
 328.17;    3.121;   -9.533;    0.000
 328.33;    4.121;   15.667;    0.000
 328.50;    1.476;   -0.067;    0.000
 328.67;    8.691;    9.733;    0.000
 328.84;    0.883;   22.800;    0.000
 329.00;   -1.123;   13.133;    0.000
 329.17;    2.978;    5.533;    0.000
 329.34;    2.763;    9.400;    0.000
 329.50;   -1.724;    7.867;    0.000
 329.67;    1.301;   14.733;    0.000
 329.84;    1.681;    6.200;    0.000
 330.01;    9.877;    3.067;    0.000
 330.17;    1.973;   14.800;    0.000
 330.34;    1.515;   23.000;    0.000
 330.51;   -1.721;   -0.333;    0.000
 330.67;    1.586;    0.733;    0.000
 330.84;    3.722;    0.867;    0.000
 331.01;   -5.152;    2.600;    0.000
 331.17;   -3.891;    7.867;    0.000
 331.34;    1.618;   14.667;    0.000
 331.51;    3.863;    4.800;    0.000
 331.68;    5.950;    1.933;    0.000
 331.84;   -5.561;   -6.533;    0.000
 332.01;    4.833;  -13.533;    0.000
 332.18;    1.095;    0.200;    0.000
 332.34;    3.374;    1.267;    0.000
 332.51;   -2.475;   -2.467;    0.000
 332.68;    1.085;   13.867;    0.000
 332.84;   -7.569;    5.533;    0.000
 333.01;    3.255;    0.867;    0.000
 333.18;    2.845;    2.467;    0.000
 333.34;   12.939;   22.800;    0.000
 333.51;    9.137;   -2.267;    0.000
 333.68;   17.852;   18.933;    0.000
 333.85;   33.734;   17.133;    0.000
 334.01;   82.829;   -9.467;    0.000
 334.18;  188.780;    0.333;    0.000
 334.35;  133.774;  -12.200;    0.000
 334.51;   24.937;   29.200;    0.000
 334.68;    3.907;    7.733;    0.000
 334.85;   10.208;   13.933;    0.000
 335.01;   -1.330;    4.867;    0.000
 335.18;   -2.093;    0.467;    0.000
 335.35;    7.444;    8.467;    0.000
 335.51;    0.319;    1.200;    0.000
 335.68;   -0.508;   12.333;    0.000
 335.85;    1.928;   -0.133;    0.000
 336.01;    2.178;   -4.600;    0.000
 336.18;    2.845;   -5.200;    0.000
 336.35;   -4.843;   11.000;    0.000
 336.51;   -5.493;    2.400;    0.000
 336.68;    1.235;   -2.400;    0.000
 336.85;    5.558;   -9.533;    0.000
 337.02;    2.172;    4.067;    0.000
 337.18;   -1.008;   20.067;    0.000
 337.35;    1.871;   -6.467;    0.000
 337.52;    3.791;   -9.533;    0.000
 337.68;    1.714;    4.267;    0.000
 337.85;    0.518;    2.067;    0.000
 338.02;    1.895;    6.000;    0.000
 338.18;    0.101;    0.000;    0.000
 338.35;    4.311;   11.800;    0.000
 338.52;    3.068;   -9.467;    0.000
 338.68;    4.660;   11.667;    0.000
 338.85;   10.884;    4.067;    0.000
 339.02;    0.021;    9.733;    0.000
 339.18;    2.358;  -13.800;    0.000
 339.35;   -2.087;   23.733;    0.000
 339.52;   -1.472;   -7.400;    0.000
 339.68;    4.124;    5.000;    0.000
 339.85;   -1.162;    9.933;    0.000
 340.02;   10.704;    1.400;    0.000
 340.18;    1.970;    5.133;    0.000
 340.35;    4.286;   16.800;    0.000
 340.52;    1.414;   -7.067;    0.000
 340.68;    3.023;   10.733;    0.000
 340.85;    4.117;  -17.400;    0.000
 341.02;   -3.027;    8.400;    0.000
 341.18;    5.048;    7.867;    0.000
 341.35;   -2.340;   -5.133;    0.000
 341.52;    3.350;  -13.867;    0.000
 341.68;   -0.694;  -10.600;    0.000
 341.85;   -1.954;  -20.133;    0.000
 342.02;    7.698;   19.867;    0.000
 342.18;    2.921;    2.000;    0.000
 342.35;    9.988;    6.200;    0.000
 342.52;    3.480;    7.600;    0.000
 342.68;    2.800;    8.800;    0.000
 342.85;    0.896;   10.533;    0.000
 343.02;    6.087;   11.667;    0.000
 343.18;    2.464;   15.533;    0.000
 343.35;    5.921;    3.200;    0.000
 343.51;    6.509;    3.267;    0.000
 343.68;    6.680;    2.267;    0.000
 343.85;    9.602;   -7.333;    0.000
 344.01;    2.282;   -9.000;    0.000
 344.18;   -1.482;   -5.133;    0.000
 344.35;   -2.401;  -11.867;    0.000
 344.51;   -1.213;   -1.667;    0.000
 344.68;   -5.463;    3.733;    0.000
 344.85;    2.881;   -1.267;    0.000
 345.01;    4.906;    3.867;    0.000
 345.18;   -0.183;    0.133;    0.000
 345.35;    2.901;   16.867;    0.000
 345.51;    0.535;  -10.333;    0.000
 345.68;    5.686;  -14.267;    0.000
 345.85;   -4.970;    3.800;    0.000
 346.01;    4.392;   15.400;    0.000
 346.18;   -0.477;   -1.200;    0.000
 346.35;    3.657;  -10.933;    0.000
 346.51;    1.920;   19.533;    0.000
 346.68;   -2.465;    5.667;    0.000
 346.84;    7.846;   10.067;    0.000
 347.01;    0.235;   15.333;    0.000
 347.18;    4.175;   17.733;    0.000
 347.34;    6.753;    8.600;    0.000
 347.51;    0.731;   -2.267;    0.000
 347.68;   -0.620;   -6.933;    0.000
 347.84;   -2.436;   24.067;    0.000
 348.01;   -3.337;   10.667;    0.000
 348.18;    3.220;   19.333;    0.000
 348.34;    4.797;    1.933;    0.000
 348.51;    4.862;   10.467;    0.000
 348.67;    9.184;   24.200;    0.000
 348.84;   -0.847;   13.467;    0.000
 349.01;   -5.299;   -9.333;    0.000
 349.17;   -1.532;    7.267;    0.000
 349.34;    4.038;    2.533;    0.000
 349.51;    0.851;   -3.200;    0.000
 349.67;    1.443;    8.133;    0.000
 349.84;    5.516;   -2.533;    0.000
 350.01;    0.328;    6.067;    0.000
 350.17;   -2.706;    4.800;    0.000
 350.34;    1.781;   -5.533;    0.000
 350.50;    4.067;   15.533;    0.000
 350.67;    9.828;    5.133;    0.000
 350.84;    3.199;   -7.933;    0.000
 351.00;   -1.711;   10.800;    0.000
 351.17;    2.151;    8.267;    0.000
 351.34;    7.523;   22.133;    0.000
 351.50;    2.712;    4.000;    0.000
 351.67;   -1.813;    6.267;    0.000
 351.83;    1.886;  -14.400;    0.000
 352.00;    0.150;   -1.200;    0.000
 352.17;   -2.165;    4.067;    0.000
 352.33;   -1.313;    1.933;    0.000
 352.50;    3.351;   -6.867;    0.000
 352.67;    4.019;   -8.067;    0.000
 352.83;    5.301;   -7.067;    0.000
 353.00;   -5.469;   15.600;    0.000
 353.16;    3.289;    6.133;    0.000
 353.33;    5.712;   -7.933;    0.000
 353.50;   -0.453;    4.133;    0.000
 353.66;   13.068;   13.133;    0.000
 353.83;    7.261;   -3.733;    0.000
 354.00;   -2.038;   14.600;    0.000
 354.16;    4.605;   -7.733;    0.000
 354.33;    4.326;   11.267;    0.000
 354.49;   -4.089;   -5.867;    0.000
 354.66;   -2.461;   -0.467;    0.000
 354.83;    7.882;   -7.000;    0.000
 354.99;    4.315;    6.867;    0.000
 355.16;    1.101;   -7.467;    0.000
 355.32;   -1.031;   12.267;    0.000
 355.49;    4.785;   30.533;    0.000
 355.66;    1.811;    6.400;    0.000
 355.82;    1.800;    9.267;    0.000
 355.99;    7.748;   -4.333;    0.000
 356.15;    7.213;    5.667;    0.000
 356.32;   15.486;   19.067;    0.000
 356.49;    5.214;    0.333;    0.000
 356.65;    2.979;   -3.267;    0.000
 356.82;    0.787;   -3.800;    0.000
 356.98;    7.078;    2.733;    0.000
 357.15;    3.036;    7.067;    0.000
 357.32;   10.994;    0.333;    0.000
 357.48;    1.190;    5.133;    0.000
 357.65;    4.447;   -9.933;    0.000
 357.82;    5.935;   -5.400;    0.000
 357.98;    2.335;   14.600;    0.000
 358.15;    5.283;    2.333;    0.000
 358.31;    6.016;   34.067;    0.000
 358.48;    7.028;    9.467;    0.000
 358.65;    7.882;   14.867;    0.000
 358.81;    7.320;  -10.733;    0.000
 358.98;    8.477;    6.333;    0.000
 359.14;    1.714;    7.267;    0.000
 359.31;    7.121;   -8.533;    0.000
 359.48;   10.303;    3.267;    0.000
 359.64;    3.051;   16.867;    0.000
 359.81;   -3.059;   -3.400;    0.000
 359.97;    8.272;    8.467;    0.000
 360.14;   -1.521;    0.667;    0.000
 360.30;    5.238;   13.067;    0.000
 360.47;    1.469;    2.467;    0.000
 360.64;    2.708;  -18.400;    0.000
 360.80;    7.380;   -8.733;    0.000
 360.97;   -1.002;    5.333;    0.000
 361.13;    7.915;    3.867;    0.000
 361.30;    1.518;   -7.800;    0.000
 361.47;    1.688;   -2.933;    0.000
 361.63;    6.266;    9.200;    0.000
 361.80;   -0.844;   -4.000;    0.000
 361.96;    4.544;   14.400;    0.000
 362.13;    1.554;    3.400;    0.000
 362.30;   -0.523;    3.067;    0.000
 362.46;    1.719;  -16.400;    0.000
 362.63;    6.305;    6.200;    0.000
 362.79;   10.489;   20.400;    0.000
 362.96;    9.226;    9.400;    0.000
 363.12;   10.767;   10.667;    0.000
 363.29;   18.284;    7.600;    0.000
 363.46;   14.702;   -8.200;    0.000
 363.62;   14.691;    7.733;    0.000
 363.79;   24.500;   23.267;    0.000
 363.95;   40.946;   -6.733;    0.000
 364.12;   53.359;   -3.733;    0.000
 364.29;  102.387;    9.067;    0.000
 364.45;  226.865;   -5.533;    0.000
 364.62;  638.238;    2.867;    0.000
 364.78; 2659.104;   12.400;    0.000
 364.95; 8756.257;    2.267;    0.000
 365.11; 9177.828;   -4.000;    0.000
 365.28; 2806.903;   12.133;    0.000
 365.45; 3085.569;    1.800;    0.000
 365.61; 2226.481;    3.333;    0.000
 365.78;  453.219;   -5.533;    0.000
 365.94;  262.035;   -5.733;    0.000
 366.11;  703.581;    5.067;    0.000
 366.27; 1943.713;    5.200;    0.000
 366.44; 1631.158;    2.533;    0.000
 366.61;  287.186;   13.400;    0.000
 366.77;   70.805;   -1.800;    0.000
 366.94;   35.045;   -5.200;    0.000
 367.10;   19.580;    4.800;    0.000
 367.27;   12.313;   -5.467;    0.000
 367.43;    7.682;    4.867;    0.000
 367.60;   10.669;    8.133;    0.000
 367.77;    2.946;    8.133;    0.000
 367.93;    4.129;  -11.133;    0.000
 368.10;    5.976;    8.533;    0.000
 368.26;   12.373;   -3.933;    0.000
 368.43;    8.900;   10.000;    0.000
 368.59;    6.262;   -7.267;    0.000
 368.76;   14.248;  -10.067;    0.000
 368.92;    9.898;    4.267;    0.000
 369.09;    1.068;    5.133;    0.000
 369.26;    2.401;    4.933;    0.000
 369.42;    7.680;    6.467;    0.000
 369.59;    7.907;  -11.667;    0.000
 369.75;    9.890;    9.867;    0.000
 369.92;    4.081;   12.200;    0.000
 370.08;    5.694;  -20.533;    0.000
 370.25;    9.356;  -14.467;    0.000
 370.42;    1.484;   -4.600;    0.000
 370.58;    8.107;   22.133;    0.000
 370.75;   10.630;   -9.267;    0.000
 370.91;    0.895;   25.667;    0.000
 371.08;    1.208;   -7.533;    0.000
 371.24;    3.375;   -0.533;    0.000
 371.41;    2.520;   -0.533;    0.000
 371.57;    5.964;   19.733;    0.000
 371.74;    8.137;   -1.467;    0.000
 371.90;    0.264;    4.200;    0.000
 372.07;   11.054;    8.067;    0.000
 372.24;    3.962;  -14.200;    0.000
 372.40;   -1.027;   -0.400;    0.000
 372.57;   -3.352;   -1.467;    0.000
 372.73;   -5.084;    6.800;    0.000
 372.90;    2.181;   19.800;    0.000
 373.06;    0.753;   -0.867;    0.000
 373.23;    6.479;    1.867;    0.000
 373.39;    8.886;    2.800;    0.000
 373.56;    3.450;    7.333;    0.000
 373.73;    1.566;    4.733;    0.000
 373.89;    4.258;   18.333;    0.000
 374.06;   -1.233;   -7.733;    0.000
 374.22;    5.899;  -11.467;    0.000
 374.39;    5.895;   -4.400;    0.000
 374.55;    7.650;   -4.667;    0.000
 374.72;    2.696;   -3.667;    0.000
 374.88;    4.135;    5.267;    0.000
 375.05;    1.298;  -16.733;    0.000
 375.21;    4.715;   18.067;    0.000
 375.38;    2.166;   13.333;    0.000
 375.54;    4.190;  -15.000;    0.000
 375.71;   -7.529;  -22.333;    0.000
 375.88;    6.441;   12.600;    0.000
 376.04;   -1.634;   17.400;    0.000
 376.21;    4.753;   -7.267;    0.000
 376.37;   -2.366;    6.600;    0.000
 376.54;   15.223;   17.267;    0.000
 376.70;    1.972;  -20.067;    0.000
 376.87;    8.897;    9.333;    0.000
 377.03;   -4.075;   21.667;    0.000
 377.20;    1.345;    8.067;    0.000
 377.36;   -2.325;   10.867;    0.000
 377.53;    1.201;   -4.467;    0.000
 377.69;    1.783;  -14.933;    0.000
 377.86;    3.788;    7.267;    0.000
 378.02;    5.432;    1.533;    0.000
 378.19;    5.174;   17.467;    0.000
 378.35;    4.994;  -12.467;    0.000
 378.52;    1.606;    1.133;    0.000
 378.69;    7.760;   -2.067;    0.000
